Time (min)	Temperature (C)	Weight (mg)
8.89E-04	27.3752	10.63958
0.004166667	27.3797	10.63961
0.0125	27.38604	10.63966
0.02083334	27.39689	10.63969
0.02916666	27.404	10.63967
0.0375	27.41003	10.6397
0.04583334	27.41255	10.63967
0.05416668	27.4157	10.63967
0.0625	27.42333	10.63964
0.07083332	27.42843	10.63963
0.07916666	27.43792	10.63961
0.0875	27.44258	10.63961
0.09583332	27.45086	10.63964
0.1041666	27.45644	10.63966
0.1125	27.46028	10.63967
0.1208333	27.46826	10.6397
0.1291666	27.47423	10.63979
0.1375	27.47756	10.63984
0.1458333	27.48817	10.63992
0.1541667	27.49844	10.64
0.1625	27.50168	10.64006
0.1708334	27.5126	10.64007
0.1791666	27.52132	10.6401
0.1875	27.52785	10.64013
0.1958334	27.54144	10.64014
0.2041667	27.5526	10.64013
0.2125	27.5625	10.64013
0.2208333	27.57303	10.64016
0.2291667	27.58222	10.6402
0.2375	27.59457	10.64021
0.2458334	27.60922	10.6403
0.2541666	27.61857	10.64042
0.2625	27.63533	10.64044
0.2708334	27.64865	10.64049
0.2791667	27.6595	10.64059
0.2875	27.67777	10.6407
0.2958333	27.69106	10.6408
0.3041667	27.70686	10.64086
0.3125	27.72322	10.64091
0.3208333	27.73692	10.64099
0.3291667	27.75228	10.64102
0.3375	27.7737	10.64105
0.3458333	27.79112	10.64114
0.3541666	27.81538	10.64125
0.3625	27.8336	10.6413
0.3708334	27.84989	10.64133
0.3791666	27.87146	10.64135
0.3875	27.89132	10.6414
0.3958334	27.91704	10.64144
0.4041666	27.94047	10.64147
0.4125	27.95832	10.64148
0.4208333	27.98715	10.64149
0.4291667	28.01261	10.64149
0.4375	28.03925	10.64144
0.4458333	28.06295	10.64148
0.4541667	28.08955	10.64148
0.4625	28.12053	10.64154
0.4708334	28.14787	10.64155
0.4791666	28.17805	10.64156
0.4875	28.20345	10.64155
0.4958334	28.23302	10.64158
0.5041666	28.26995	10.64158
0.5125	28.30135	10.64162
0.5208332	28.32971	10.64166
0.5291666	28.36581	10.64166
0.5375	28.40176	10.64168
0.5458334	28.43184	10.64168
0.5541668	28.46784	10.64167
0.5625	28.50332	10.6417
0.5708332	28.53875	10.64171
0.5791666	28.57686	10.6417
0.5875	28.61714	10.64174
0.5958334	28.655	10.64175
0.6041668	28.69369	10.64174
0.6125	28.73421	10.64172
0.6208334	28.77643	10.64168
0.6291666	28.81815	10.64165
0.6375	28.86003	10.64163
0.6458332	28.90459	10.64154
0.6541666	28.9465	10.64153
0.6625	28.98957	10.6415
0.6708334	29.03702	10.64145
0.6791668	29.08144	10.64138
0.6875	29.13063	10.64132
0.6958332	29.17656	10.64129
0.7041666	29.22664	10.64127
0.7125	29.2737	10.64124
0.7208334	29.32556	10.64122
0.7291668	29.37585	10.64123
0.7375	29.4251	10.64123
0.7458334	29.48003	10.64128
0.7541666	29.52997	10.64127
0.7625	29.57904	10.6413
0.7708332	29.63975	10.64132
0.7791666	29.68894	10.64133
0.7875	29.74767	10.64132
0.7958334	29.80462	10.64135
0.8041668	29.87678	10.64134
0.8125	29.93589	10.64136
0.8208332	29.98965	10.64134
0.8291666	30.04842	10.64126
0.8375	30.10918	10.64124
0.8458334	30.16868	10.64119
0.8541668	30.23218	10.64117
0.8625	30.28901	10.64117
0.8708332	30.35505	10.64116
0.8791668	30.41117	10.64112
0.8875	30.4778	10.64108
0.8958332	30.53858	10.64106
0.9041666	30.58949	10.64104
0.9125	30.65663	10.64104
0.9208334	30.71975	10.64106
0.9291668	30.7862	10.6411
0.9375	30.85476	10.64112
0.9458332	30.92498	10.6411
0.9541666	30.99354	10.64113
0.9625	31.06344	10.64114
0.9708334	31.1346	10.64115
0.9791668	31.20022	10.64114
0.9875	31.27308	10.64114
0.9958332	31.34607	10.64111
1.004167	31.41766	10.64109
1.0125	31.48982	10.64103
1.020833	31.56395	10.64097
1.029167	31.63512	10.64093
1.0375	31.70924	10.64085
1.045834	31.78608	10.64076
1.054167	31.85541	10.64071
1.0625	31.93588	10.6407
1.070833	32.01422	10.64066
1.079166	32.08691	10.64061
1.0875	32.16843	10.64055
1.095833	32.24374	10.64054
1.104166	32.32068	10.64055
1.1125	32.40115	10.64053
1.120833	32.48074	10.64051
1.129167	32.55881	10.64053
1.1375	32.6406	10.64054
1.145834	32.71871	10.64053
1.154167	32.80322	10.64054
1.1625	32.88013	10.64056
1.170834	32.96672	10.6406
1.179167	33.04454	10.64063
1.1875	33.13084	10.6406
1.195833	33.21476	10.64061
1.204166	33.2993	10.64066
1.2125	33.39482	10.6406
1.220833	33.46726	10.64058
1.229166	33.55198	10.64056
1.2375	33.63494	10.64056
1.245833	33.71814	10.64051
1.254167	33.81059	10.64046
1.2625	33.89611	10.64042
1.270834	33.9816	10.64045
1.279167	34.06582	10.64043
1.2875	34.15656	10.64034
1.295834	34.24378	10.64041
1.304167	34.33632	10.64045
1.3125	34.41925	10.64045
1.320833	34.50888	10.64044
1.329166	34.59589	10.6405
1.3375	34.68411	10.64054
1.345833	34.77902	10.64056
1.354166	34.8676	10.64054
1.3625	34.9571	10.64053
1.370833	35.0529	10.64061
1.379167	35.1473	10.64062
1.3875	35.2305	10.6406
1.395834	35.32474	10.64061
1.404167	35.4146	10.64061
1.4125	35.50538	10.6406
1.420834	35.59894	10.64057
1.429167	35.69231	10.64056
1.4375	35.78301	10.64057
1.445833	35.87513	10.64058
1.454166	35.96956	10.64058
1.4625	36.0604	10.64057
1.470833	36.15506	10.64057
1.479166	36.24947	10.64059
1.4875	36.3423	10.6406
1.495833	36.43314	10.64058
1.504167	36.52783	10.64057
1.5125	36.62452	10.64054
1.520834	36.72097	10.64048
1.529167	36.81556	10.64044
1.5375	36.90872	10.64038
1.545834	37.00802	10.64038
1.554167	37.09746	10.64036
1.5625	37.19791	10.64031
1.570833	37.291	10.64031
1.579166	37.38632	10.64033
1.5875	37.48258	10.64038
1.595833	37.57696	10.6404
1.604166	37.67626	10.64041
1.6125	37.77317	10.64044
1.620833	37.86453	10.6405
1.629167	37.96037	10.64049
1.6375	38.05711	10.64052
1.645834	38.15494	10.64059
1.654167	38.2505	10.6406
1.6625	38.34376	10.64062
1.670834	38.44049	10.64064
1.679166	38.54015	10.64064
1.6875	38.63394	10.64068
1.695834	38.73018	10.64066
1.704166	38.82559	10.64058
1.7125	38.92441	10.64055
1.720833	39.0225	10.64051
1.729166	39.11642	10.64042
1.7375	39.21213	10.64042
1.745833	39.31025	10.64039
1.754167	39.40862	10.64035
1.7625	39.50109	10.64037
1.770834	39.60242	10.64034
1.779167	39.69796	10.64044
1.7875	39.79555	10.64051
1.795834	39.89131	10.64055
1.804166	39.98818	10.64058
1.8125	40.08152	10.64064
1.820834	40.18184	10.64067
1.829166	40.27588	10.64068
1.8375	40.37622	10.6407
1.845833	40.47102	10.6407
1.854166	40.56643	10.64077
1.8625	40.66426	10.64072
1.870833	40.76144	10.64073
1.879167	40.85602	10.6407
1.8875	40.95086	10.64069
1.895834	41.05666	10.6407
1.904167	41.14306	10.64071
1.9125	41.24316	10.64073
1.920834	41.34341	10.64074
1.929166	41.4378	10.64078
1.9375	41.52874	10.6408
1.945834	41.63122	10.64083
1.954166	41.7209	10.64084
1.9625	41.82312	10.64087
1.970833	41.92006	10.64091
1.979166	42.01478	10.64094
1.9875	42.10717	10.64095
1.995833	42.20446	10.64096
2.004166	42.29928	10.64094
2.0125	42.39081	10.6409
2.020833	42.49153	10.64087
2.029167	42.58782	10.64084
2.0375	42.68336	10.64086
2.045834	42.77424	10.6409
2.054166	42.87416	10.64094
2.0625	42.96426	10.64096
2.070834	43.06435	10.64098
2.079166	43.16203	10.641
2.0875	43.25105	10.64104
2.095833	43.3399	10.64106
2.104167	43.43428	10.64112
2.1125	43.52937	10.64114
2.120834	43.62056	10.64115
2.129166	43.7152	10.64114
2.1375	43.8093	10.64111
2.145833	43.91079	10.64106
2.154167	44.0087	10.64103
2.1625	44.09016	10.64106
2.170834	44.18522	10.64109
2.179166	44.2788	10.64108
2.1875	44.37482	10.64106
2.195834	44.46244	10.64108
2.204166	44.55653	10.64107
2.2125	44.64884	10.64109
2.220833	44.74252	10.64114
2.229167	44.83574	10.64118
2.2375	44.92526	10.64122
2.245834	45.01759	10.6412
2.254166	45.1066	10.64122
2.2625	45.20359	10.6413
2.270833	45.29429	10.64133
2.279167	45.3845	10.64138
2.2875	45.47866	10.64142
2.295834	45.56915	10.64144
2.304166	45.6585	10.64144
2.3125	45.7521	10.64146
2.320834	45.84488	10.64146
2.329166	45.93149	10.64148
2.3375	46.02696	10.64148
2.345833	46.11516	10.64144
2.354167	46.2034	10.64142
2.3625	46.293	10.64142
2.370834	46.37934	10.64142
2.379166	46.47703	10.64142
2.3875	46.56153	10.6414
2.395833	46.6499	10.64143
2.404167	46.7409	10.64146
2.4125	46.8294	10.64144
2.420834	46.9223	10.64143
2.429166	47.01342	10.64142
2.4375	47.10172	10.6414
2.445834	47.18634	10.64137
2.454166	47.27848	10.64134
2.4625	47.3759	10.64134
2.470833	47.45998	10.64138
2.479167	47.544	10.64136
2.4875	47.6359	10.64136
2.495834	47.7179	10.64139
2.504166	47.81176	10.64142
2.5125	47.897	10.64149
2.520833	47.9831	10.64156
2.529167	48.07034	10.6416
2.5375	48.1575	10.64166
2.545834	48.2435	10.64171
2.554166	48.33062	10.64172
2.5625	48.41601	10.64172
2.570834	48.50302	10.64173
2.579166	48.5935	10.64175
2.5875	48.67665	10.64174
2.595833	48.7655	10.64175
2.604167	48.8498	10.64174
2.6125	48.93839	10.64175
2.620834	49.02101	10.64172
2.629166	49.10984	10.64172
2.6375	49.197	10.64172
2.645833	49.27885	10.64175
2.654167	49.3725	10.6418
2.6625	49.46443	10.64182
2.670834	49.55428	10.64186
2.679166	49.63726	10.64187
2.6875	49.72334	10.64185
2.695834	49.80701	10.64181
2.704166	49.88746	10.64181
2.7125	49.96022	10.64179
2.720833	50.04754	10.6418
2.729167	50.1283	10.64184
2.7375	50.21378	10.64184
2.745834	50.29793	10.64183
2.754166	50.38158	10.64186
2.7625	50.46653	10.64194
2.770833	50.55381	10.64196
2.779167	50.63386	10.64203
2.7875	50.71984	10.64209
2.795834	50.81016	10.64213
2.804166	50.88854	10.64218
2.8125	50.97162	10.64218
2.820834	51.05232	10.64217
2.829166	51.13294	10.64214
2.8375	51.21992	10.64208
2.845833	51.30424	10.64201
2.854167	51.38512	10.64203
2.8625	51.46567	10.64199
2.870834	51.55156	10.64199
2.879166	51.62966	10.64201
2.8875	51.71793	10.64199
2.895833	51.79553	10.64198
2.904167	51.88111	10.64198
2.9125	51.96144	10.64206
2.920834	52.04889	10.64213
2.929166	52.12892	10.64214
2.9375	52.20922	10.64216
2.945834	52.29453	10.64214
2.954166	52.37376	10.64213
2.9625	52.45474	10.64209
2.970833	52.5345	10.64204
2.979167	52.61778	10.64202
2.9875	52.70019	10.64201
2.995834	52.7857	10.64198
3.004166	52.86919	10.64197
3.0125	52.94812	10.64197
3.020833	53.02512	10.64198
3.029167	53.10486	10.64207
3.0375	53.18852	10.64212
3.045834	53.27221	10.64218
3.054166	53.34994	10.64226
3.0625	53.43407	10.64231
3.070834	53.5162	10.64236
3.079166	53.59749	10.6424
3.0875	53.67572	10.64239
3.095833	53.75476	10.64239
3.104167	53.83722	10.64239
3.1125	53.91994	10.64239
3.120834	53.99718	10.64235
3.129166	54.07877	10.64232
3.1375	54.1582	10.64228
3.145833	54.24144	10.64227
3.154167	54.32016	10.64228
3.1625	54.40139	10.64228
3.170834	54.48555	10.64231
3.179166	54.56226	10.64234
3.1875	54.64538	10.64234
3.195834	54.72336	10.6423
3.204167	54.80424	10.64226
3.2125	54.88402	10.64228
3.220833	54.96406	10.64232
3.229167	55.04324	10.64236
3.2375	55.12244	10.64236
3.245834	55.20146	10.64236
3.254166	55.28132	10.64232
3.2625	55.3663	10.6423
3.270833	55.44259	10.64231
3.279167	55.52246	10.64233
3.2875	55.60105	10.64234
3.295833	55.6815	10.6423
3.304166	55.76062	10.64225
3.3125	55.84482	10.6422
3.320834	55.92514	10.64215
3.329167	56.00506	10.64213
3.3375	56.08313	10.64214
3.345833	56.16262	10.64218
3.354167	56.24032	10.64221
3.3625	56.31985	10.64226
3.370834	56.40128	10.6423
3.379166	56.48373	10.64235
3.3875	56.55783	10.64235
3.395833	56.63791	10.64239
3.404167	56.7179	10.64247
3.4125	56.81113	10.64244
3.420833	56.88711	10.64244
3.429166	56.97148	10.64243
3.4375	57.05146	10.64239
3.445834	57.12886	10.64237
3.454167	57.20738	10.6424
3.4625	57.28384	10.64243
3.470833	57.35182	10.64247
3.479167	57.4315	10.6425
3.4875	57.51078	10.64249
3.495834	57.58902	10.64256
3.504166	57.67452	10.64258
3.5125	57.75581	10.6426
3.520833	57.83124	10.64262
3.529167	57.90574	10.64266
3.5375	57.9882	10.64266
3.545833	58.06702	10.64268
3.554166	58.14481	10.64274
3.5625	58.2276	10.64274
3.570834	58.31006	10.64272
3.579167	58.3863	10.64273
3.5875	58.46871	10.64271
3.595833	58.54277	10.6427
3.604167	58.6249	10.64269
3.6125	58.70636	10.64272
3.620834	58.77951	10.64269
3.629166	58.86118	10.64268
3.6375	58.93887	10.64267
3.645833	59.01822	10.64267
3.654167	59.09868	10.64268
3.6625	59.17821	10.64269
3.670833	59.2563	10.64272
3.679166	59.33829	10.64278
3.6875	59.41685	10.64279
3.695834	59.49536	10.64277
3.704167	59.5788	10.6428
3.7125	59.65698	10.64281
3.720833	59.73271	10.64277
3.729167	59.81555	10.64274
3.7375	59.89399	10.64276
3.745834	59.97503	10.64277
3.754166	60.05442	10.64277
3.7625	60.1378	10.64278
3.770833	60.21508	10.64282
3.779167	60.29322	10.64281
3.7875	60.37141	10.64281
3.795833	60.45482	10.64283
3.804166	60.53463	10.64287
3.8125	60.6082	10.64285
3.820834	60.69106	10.64282
3.829167	60.77465	10.64281
3.8375	60.8524	10.6428
3.845833	60.93272	10.64278
3.854167	61.01275	10.64276
3.8625	61.09414	10.64279
3.870834	61.17332	10.64279
3.879166	61.25382	10.64277
3.8875	61.3313	10.64275
3.895833	61.41535	10.64277
3.904167	61.49175	10.64277
3.9125	61.57678	10.64276
3.920833	61.65724	10.64276
3.929166	61.73274	10.64273
3.9375	61.8122	10.64271
3.945834	61.89228	10.64268
3.954167	61.9752	10.64267
3.9625	62.05157	10.64271
3.970833	62.1384	10.6427
3.979167	62.21729	10.64272
3.9875	62.2943	10.64276
3.995834	62.37728	10.64281
4.004166	62.45567	10.64284
4.0125	62.53853	10.64285
4.020834	62.61792	10.64286
4.029167	62.69682	10.64288
4.0375	62.77627	10.6429
4.045833	62.86024	10.64287
4.054167	62.93776	10.64289
4.0625	63.02057	10.64288
4.070833	63.09695	10.64286
4.079167	63.1806	10.6428
4.0875	63.26136	10.64275
4.095833	63.34072	10.64274
4.104166	63.4228	10.64278
4.1125	63.49985	10.64277
4.120834	63.58374	10.64273
4.129166	63.6623	10.64274
4.1375	63.74584	10.64273
4.145834	63.82379	10.64272
4.154167	63.90692	10.64273
4.1625	63.98892	10.64276
4.170833	64.06938	10.64276
4.179167	64.15006	10.64279
4.1875	64.23496	10.64277
4.195833	64.31186	10.64279
4.204167	64.39516	10.64282
4.2125	64.4727	10.64281
4.220833	64.5582	10.64282
4.229166	64.63653	10.64285
4.2375	64.71789	10.64285
4.245834	64.81332	10.64285
4.254166	64.89571	10.64289
4.2625	64.97492	10.64292
4.270834	65.04972	10.64291
4.279167	65.12451	10.64292
4.2875	65.20678	10.64293
4.295833	65.2898	10.64293
4.304167	65.38354	10.64292
4.3125	65.46593	10.6429
4.320833	65.54522	10.64292
4.329167	65.62792	10.64294
4.3375	65.70644	10.64292
4.345833	65.7914	10.64292
4.354166	65.87134	10.64292
4.3625	65.95041	10.64289
4.370834	66.03278	10.64292
4.379166	66.11655	10.64294
4.3875	66.19447	10.64296
4.395834	66.27876	10.64297
4.404167	66.36121	10.64296
4.4125	66.43931	10.64294
4.420833	66.52196	10.64291
4.429167	66.60391	10.64286
4.4375	66.68564	10.64285
4.445833	66.7664	10.64286
4.454167	66.84824	10.64283
4.4625	66.9197	10.64284
4.470833	66.99998	10.64288
4.479166	67.08186	10.64289
4.4875	67.1609	10.64288
4.495834	67.24612	10.64291
4.504166	67.3289	10.64297
4.5125	67.40932	10.643
4.520834	67.49478	10.643
4.529167	67.5747	10.64301
4.5375	67.66015	10.64301
4.545833	67.73797	10.643
4.554167	67.823	10.64299
4.5625	67.90616	10.643
4.570833	67.98545	10.64301
4.579167	68.0705	10.64303
4.5875	68.15282	10.64304
4.595833	68.23426	10.64307
4.604166	68.317	10.6431
4.6125	68.39784	10.64307
4.620834	68.48212	10.64308
4.629166	68.56199	10.64308
4.6375	68.648	10.64308
4.645834	68.72566	10.6431
4.654167	68.81398	10.64311
4.6625	68.89351	10.64307
4.670833	68.9775	10.64306
4.679167	69.05953	10.64304
4.6875	69.14176	10.64301
4.695833	69.22621	10.643
4.704167	69.30834	10.64298
4.7125	69.3917	10.64295
4.720833	69.47256	10.64293
4.729166	69.5566	10.64292
4.7375	69.63866	10.64292
4.745834	69.7211	10.64296
4.754166	69.80356	10.64299
4.7625	69.88687	10.643
4.770834	69.97138	10.64302
4.779167	70.05079	10.64306
4.7875	70.13526	10.64311
4.795833	70.22199	10.64316
4.804167	70.30211	10.64317
4.8125	70.38722	10.6432
4.820833	70.47016	10.64322
4.829167	70.55236	10.64322
4.8375	70.63626	10.64322
4.845833	70.71544	10.64321
4.854166	70.80402	10.64321
4.8625	70.88276	10.64322
4.870834	70.96652	10.64322
4.879166	71.06194	10.64324
4.8875	71.1455	10.64325
4.895834	71.21653	10.64322
4.904167	71.30098	10.64316
4.9125	71.385	10.64313
4.920833	71.4653	10.64306
4.929167	71.55395	10.64304
4.9375	71.6355	10.64302
4.945833	71.72012	10.64297
4.954167	71.80204	10.64296
4.9625	71.87988	10.64291
4.970833	71.96742	10.64289
4.979166	72.04984	10.64289
4.9875	72.13056	10.64291
4.995834	72.21595	10.64293
5.004166	72.30022	10.64299
5.0125	72.3844	10.64302
5.020834	72.469	10.64306
5.029167	72.54972	10.6431
5.0375	72.63647	10.64312
5.045833	72.71856	10.64316
5.054167	72.80326	10.64319
5.0625	72.88657	10.6432
5.070833	72.97376	10.64323
5.079167	73.05736	10.64325
5.0875	73.13738	10.64325
5.095833	73.22152	10.64326
5.104166	73.30642	10.64325
5.1125	73.38972	10.64323
5.120834	73.47164	10.6432
5.129166	73.55836	10.64319
5.1375	73.64289	10.64318
5.145834	73.72186	10.64317
5.154167	73.81076	10.64316
5.1625	73.893	10.64315
5.170833	73.97561	10.64315
5.179167	74.05968	10.64312
5.1875	74.14378	10.64309
5.195833	74.22444	10.6431
5.204167	74.30714	10.64312
5.2125	74.39329	10.64316
5.220833	74.47871	10.64314
5.229166	74.56403	10.64315
5.2375	74.64458	10.64316
5.245834	74.72956	10.64317
5.254166	74.81556	10.64315
5.2625	74.89788	10.64314
5.270834	74.98363	10.64317
5.279168	75.06744	10.64317
5.2875	75.1504	10.6432
5.295832	75.23262	10.64318
5.304168	75.32134	10.64319
5.3125	75.40449	10.64318
5.320832	75.4845	10.64315
5.329168	75.56722	10.64314
5.3375	75.65339	10.64313
5.345832	75.73774	10.64314
5.354166	75.82265	10.64314
5.3625	75.90542	10.64313
5.370834	75.98778	10.64308
5.379166	76.07226	10.64304
5.3875	76.15738	10.64301
5.395834	76.24092	10.64302
5.404168	76.32456	10.64302
5.4125	76.40994	10.64301
5.420832	76.49022	10.64301
5.429168	76.57588	10.64299
5.4375	76.66256	10.643
5.445832	76.74397	10.64301
5.454168	76.83097	10.64301
5.4625	76.91606	10.64304
5.470832	76.99898	10.64304
5.479166	77.08262	10.64299
5.4875	77.16587	10.643
5.495834	77.24993	10.64299
5.504166	77.33425	10.64299
5.5125	77.41634	10.64298
5.520834	77.50644	10.64293
5.529168	77.58579	10.64285
5.5375	77.67151	10.64282
5.545832	77.75528	10.6428
5.554168	77.84078	10.64278
5.5625	77.92476	10.64278
5.570832	78.00818	10.64281
5.579168	78.09141	10.64283
5.5875	78.17672	10.64283
5.595832	78.26212	10.64286
5.604166	78.3446	10.6429
5.6125	78.43028	10.64294
5.620834	78.51145	10.64295
5.629166	78.59915	10.64297
5.6375	78.6837	10.64302
5.645834	78.77906	10.64306
5.654168	78.86352	10.64304
5.6625	78.9425	10.64304
5.670832	79.01762	10.64306
5.679168	79.10089	10.64302
5.6875	79.18868	10.643
5.695832	79.27134	10.64302
5.704168	79.35451	10.64304
5.7125	79.43969	10.64304
5.720832	79.52298	10.64305
5.729166	79.60426	10.643
5.7375	79.69278	10.64293
5.745834	79.77184	10.64288
5.754166	79.85831	10.64282
5.7625	79.9437	10.64283
5.770834	80.02808	10.64279
5.779168	80.11272	10.64278
5.7875	80.19374	10.64278
5.795832	80.28085	10.64285
5.804168	80.36468	10.64285
5.8125	80.44861	10.64287
5.820832	80.5353	10.64292
5.829168	80.62042	10.64295
5.8375	80.70157	10.64299
5.845832	80.78676	10.64301
5.854166	80.86743	10.64304
5.8625	80.95265	10.64304
5.870834	81.04045	10.64304
5.879166	81.12394	10.64296
5.8875	81.206	10.64295
5.895834	81.28994	10.64306
5.904168	81.3731	10.64304
5.9125	81.4593	10.64305
5.920832	81.54666	10.64304
5.929168	81.62728	10.64305
5.9375	81.71	10.64304
5.945832	81.79422	10.64302
5.954168	81.87761	10.64301
5.9625	81.96594	10.64296
5.970832	82.0498	10.64291
5.979166	82.1336	10.64286
5.9875	82.21739	10.64284
5.995834	82.30162	10.64279
6.004166	82.38735	10.64281
6.0125	82.46939	10.64281
6.020834	82.55358	10.64281
6.029168	82.63941	10.64281
6.0375	82.72019	10.64282
6.045832	82.80295	10.64286
6.054168	82.88687	10.64288
6.0625	82.97134	10.64279
6.070832	83.05647	10.64283
6.079168	83.13793	10.64286
6.0875	83.22294	10.64286
6.095832	83.31652	10.64283
6.104166	83.41043	10.64281
6.1125	83.49516	10.64279
6.120834	83.57366	10.64277
6.129166	83.65866	10.64273
6.1375	83.737	10.64273
6.145834	83.81189	10.64275
6.154168	83.89699	10.64274
6.1625	83.98003	10.64271
6.170832	84.06461	10.64271
6.179168	84.14938	10.64274
6.1875	84.23446	10.64276
6.195832	84.31884	10.64279
6.204168	84.3991	10.6428
6.2125	84.48974	10.64281
6.220832	84.57665	10.64279
6.229166	84.65184	10.64278
6.2375	84.73782	10.64277
6.245834	84.82079	10.6428
6.254166	84.90328	10.64279
6.2625	84.98828	10.64278
6.270834	85.07234	10.64275
6.279168	85.15592	10.64272
6.2875	85.23808	10.64271
6.295832	85.32259	10.64271
6.304168	85.40555	10.64271
6.3125	85.49168	10.64271
6.320832	85.57519	10.6427
6.329168	85.65826	10.64267
6.3375	85.74306	10.64264
6.345832	85.82684	10.6426
